#FUNCTION 
 $TYPE
  T_AIR
 $VARIABLES
  TIME ST
 $DATA
; t [s]			T [K]	;	T [Â°C]	Monat	Tage/Monat	Tage/halber Monat	Umstellzeitpunkte		
0	-1.6799
432000	-1.6799
864000	1.18403
1296000	-0.0309375
1728000	1.86507
2160000	7.33958
2592000	5.27007
3024000	3.25757
3456000	1.79003
3888000	2.63931
4320000	1.06406
4752000	1.74858
5184000	3.03458
5616000	2.49024
6048000	8.08333
6480000	3.51465
6912000	3.19274
7344000	3.82913
7776000	4.71285
8208000	8.60632
8640000	4.37288
9072000	6.85378
9504000	5.73865
9936000	11.643
10368000	10.5298
10800000	12.8302
11232000	9.47865
11664000	13.5242
12096000	13.6515
12528000	9.72455
12960000	14.1652
13392000	15.57
13824000	13.4392
14256000	17.7681
14688000	15.0109
15120000	15.2747
15552000	15.3641
15984000	17.65
16416000	16.1052
16848000	16.3281
17280000	20.8462
17712000	18.1309
18144000	18.2482
18576000	18.8145
19008000	17.297
19440000	18.0693
19872000	16.666
20304000	20.9778
20736000	17.808
21168000	16.7348
21600000	18.2923
22032000	15.5714
22464000	14.3457
22896000	13.1969
23328000	13.1553
23760000	12.3631
24192000	13.9037
24624000	11.4667
25056000	10.5328
25488000	8.34385
25920000	8.83851
26352000	7.92083
26784000	7.16299
27216000	7.39878
27648000	5.84847
28080000	3.8991
28512000	4.12941
28944000	3.62483
29376000	3.28892
29808000	5.85115
30240000	4.01823
30672000	1.73694
31104000	1.89597
31536000	-0.927674
31968000	-1.6799
32400000	1.18403
32832000	-0.0309375
33264000	1.86507
33696000	7.33958
34128000	5.27007
34560000	3.25757
34992000	1.79003
35424000	2.63931
35856000	1.06406
36288000	1.74858
36720000	3.03458
37152000	2.49024
37584000	8.08333
38016000	3.51465
38448000	3.19274
38880000	3.82913
39312000	4.71285
39744000	8.60632
40176000	4.37288
40608000	6.85378
41040000	5.73865
41472000	11.643
41904000	10.5298
42336000	12.8302
42768000	9.47865
43200000	13.5242
43632000	13.6515
44064000	9.72455
44496000	14.1652
44928000	15.57
45360000	13.4392
45792000	17.7681
46224000	15.0109
46656000	15.2747
47088000	15.3641
47520000	17.65
47952000	16.1052
48384000	16.3281
48816000	20.8462
49248000	18.1309
49680000	18.2482
50112000	18.8145
50544000	17.297
50976000	18.0693
51408000	16.666
51840000	20.9778
52272000	17.808
52704000	16.7348
53136000	18.2923
53568000	15.5714
54000000	14.3457
54432000	13.1969
54864000	13.1553
55296000	12.3631
55728000	13.9037
56160000	11.4667
56592000	10.5328
57024000	8.34385
57456000	8.83851
57888000	7.92083
58320000	7.16299
58752000	7.39878
59184000	5.84847
59616000	3.8991
60048000	4.12941
60480000	3.62483
60912000	3.28892
61344000	5.85115
61776000	4.01823
62208000	1.73694
62640000	1.89597
63072000	-0.927674
63504000	-1.6799
63936000	1.18403
64368000	-0.0309375
64800000	1.86507
65232000	7.33958
65664000	5.27007
66096000	3.25757
66528000	1.79003
66960000	2.63931
67392000	1.06406
67824000	1.74858
68256000	3.03458
68688000	2.49024
69120000	8.08333
69552000	3.51465
69984000	3.19274
70416000	3.82913
70848000	4.71285
71280000	8.60632
71712000	4.37288
72144000	6.85378
72576000	5.73865
73008000	11.643
73440000	10.5298
73872000	12.8302
74304000	9.47865
74736000	13.5242
75168000	13.6515
75600000	9.72455
76032000	14.1652
76464000	15.57
76896000	13.4392
77328000	17.7681
77760000	15.0109
78192000	15.2747
78624000	15.3641
79056000	17.65
79488000	16.1052
79920000	16.3281
80352000	20.8462
80784000	18.1309
81216000	18.2482
81648000	18.8145
82080000	17.297
82512000	18.0693
82944000	16.666
83376000	20.9778
83808000	17.808
84240000	16.7348
84672000	18.2923
85104000	15.5714
85536000	14.3457
85968000	13.1969
86400000	13.1553
86832000	12.3631
87264000	13.9037
87696000	11.4667
88128000	10.5328
88560000	8.34385
88992000	8.83851
89424000	7.92083
89856000	7.16299
90288000	7.39878
90720000	5.84847
91152000	3.8991
91584000	4.12941
92016000	3.62483
92448000	3.28892
92880000	5.85115
93312000	4.01823
93744000	1.73694
94176000	1.89597
94608000	-0.927674
95040000	-1.6799
95472000	1.18403
95904000	-0.0309375
96336000	1.86507
96768000	7.33958
97200000	5.27007
97632000	3.25757
98064000	1.79003
98496000	2.63931
98928000	1.06406
99360000	1.74858
99792000	3.03458
100224000	2.49024
100656000	8.08333
101088000	3.51465
101520000	3.19274
101952000	3.82913
102384000	4.71285
102816000	8.60632
103248000	4.37288
103680000	6.85378
104112000	5.73865
104544000	11.643
104976000	10.5298
105408000	12.8302
105840000	9.47865
106272000	13.5242
106704000	13.6515
107136000	9.72455
107568000	14.1652
108000000	15.57
108432000	13.4392
108864000	17.7681
109296000	15.0109
109728000	15.2747
110160000	15.3641
110592000	17.65
111024000	16.1052
111456000	16.3281
111888000	20.8462
112320000	18.1309
112752000	18.2482
113184000	18.8145
113616000	17.297
114048000	18.0693
114480000	16.666
114912000	20.9778
115344000	17.808
115776000	16.7348
116208000	18.2923
116640000	15.5714
117072000	14.3457
117504000	13.1969
117936000	13.1553
118368000	12.3631
118800000	13.9037
119232000	11.4667
119664000	10.5328
120096000	8.34385
120528000	8.83851
120960000	7.92083
121392000	7.16299
121824000	7.39878
122256000	5.84847
122688000	3.8991
123120000	4.12941
123552000	3.62483
123984000	3.28892
124416000	5.85115
124848000	4.01823
125280000	1.73694
125712000	1.89597
126144000	-0.927674
126576000	-1.6799
127008000	1.18403
127440000	-0.0309375
127872000	1.86507
128304000	7.33958
128736000	5.27007
129168000	3.25757
129600000	1.79003
130032000	2.63931
130464000	1.06406
130896000	1.74858
131328000	3.03458
131760000	2.49024
132192000	8.08333
132624000	3.51465
133056000	3.19274
133488000	3.82913
133920000	4.71285
134352000	8.60632
134784000	4.37288
135216000	6.85378
135648000	5.73865
136080000	11.643
136512000	10.5298
136944000	12.8302
137376000	9.47865
137808000	13.5242
138240000	13.6515
138672000	9.72455
139104000	14.1652
139536000	15.57
139968000	13.4392
140400000	17.7681
140832000	15.0109
141264000	15.2747
141696000	15.3641
142128000	17.65
142560000	16.1052
142992000	16.3281
143424000	20.8462
143856000	18.1309
144288000	18.2482
144720000	18.8145
145152000	17.297
145584000	18.0693
146016000	16.666
146448000	20.9778
146880000	17.808
147312000	16.7348
147744000	18.2923
148176000	15.5714
148608000	14.3457
149040000	13.1969
149472000	13.1553
149904000	12.3631
150336000	13.9037
150768000	11.4667
151200000	10.5328
151632000	8.34385
152064000	8.83851
152496000	7.92083
152928000	7.16299
153360000	7.39878
153792000	5.84847
154224000	3.8991
154656000	4.12941
155088000	3.62483
155520000	3.28892
155952000	5.85115
156384000	4.01823
156816000	1.73694
157248000	1.89597
157680000	-0.927674
158112000	-1.6799
158544000	1.18403
158976000	-0.0309375
159408000	1.86507
159840000	7.33958
160272000	5.27007
160704000	3.25757
161136000	1.79003
161568000	2.63931
162000000	1.06406
162432000	1.74858
162864000	3.03458
163296000	2.49024
163728000	8.08333
164160000	3.51465
164592000	3.19274
165024000	3.82913
165456000	4.71285
165888000	8.60632
166320000	4.37288
166752000	6.85378
167184000	5.73865
167616000	11.643
168048000	10.5298
168480000	12.8302
168912000	9.47865
169344000	13.5242
169776000	13.6515
170208000	9.72455
170640000	14.1652
171072000	15.57
171504000	13.4392
171936000	17.7681
172368000	15.0109
172800000	15.2747
173232000	15.3641
173664000	17.65
174096000	16.1052
174528000	16.3281
174960000	20.8462
175392000	18.1309
175824000	18.2482
176256000	18.8145
176688000	17.297
177120000	18.0693
177552000	16.666
177984000	20.9778
178416000	17.808
178848000	16.7348
179280000	18.2923
179712000	15.5714
180144000	14.3457
180576000	13.1969
181008000	13.1553
181440000	12.3631
181872000	13.9037
182304000	11.4667
182736000	10.5328
183168000	8.34385
183600000	8.83851
184032000	7.92083
184464000	7.16299
184896000	7.39878
185328000	5.84847
185760000	3.8991
186192000	4.12941
186624000	3.62483
187056000	3.28892
187488000	5.85115
187920000	4.01823
188352000	1.73694
188784000	1.89597
189216000	-0.927674
189648000	-1.6799
190080000	1.18403
190512000	-0.0309375
190944000	1.86507
191376000	7.33958
191808000	5.27007
192240000	3.25757
192672000	1.79003
193104000	2.63931
193536000	1.06406
193968000	1.74858
194400000	3.03458
194832000	2.49024
195264000	8.08333
195696000	3.51465
196128000	3.19274
196560000	3.82913
196992000	4.71285
197424000	8.60632
197856000	4.37288
198288000	6.85378
198720000	5.73865
199152000	11.643
199584000	10.5298
200016000	12.8302
200448000	9.47865
200880000	13.5242
201312000	13.6515
201744000	9.72455
202176000	14.1652
202608000	15.57
203040000	13.4392
203472000	17.7681
203904000	15.0109
204336000	15.2747
204768000	15.3641
205200000	17.65
205632000	16.1052
206064000	16.3281
206496000	20.8462
206928000	18.1309
207360000	18.2482
207792000	18.8145
208224000	17.297
208656000	18.0693
209088000	16.666
209520000	20.9778
209952000	17.808
210384000	16.7348
210816000	18.2923
211248000	15.5714
211680000	14.3457
212112000	13.1969
212544000	13.1553
212976000	12.3631
213408000	13.9037
213840000	11.4667
214272000	10.5328
214704000	8.34385
215136000	8.83851
215568000	7.92083
216000000	7.16299
216432000	7.39878
216864000	5.84847
217296000	3.8991
217728000	4.12941
218160000	3.62483
218592000	3.28892
219024000	5.85115
219456000	4.01823
219888000	1.73694
220320000	1.89597
220752000	-0.927674
221184000	-1.6799
221616000	1.18403
222048000	-0.0309375
222480000	1.86507
222912000	7.33958
223344000	5.27007
223776000	3.25757
224208000	1.79003
224640000	2.63931
225072000	1.06406
225504000	1.74858
225936000	3.03458
226368000	2.49024
226800000	8.08333
227232000	3.51465
227664000	3.19274
228096000	3.82913
228528000	4.71285
228960000	8.60632
229392000	4.37288
229824000	6.85378
230256000	5.73865
230688000	11.643
231120000	10.5298
231552000	12.8302
231984000	9.47865
232416000	13.5242
232848000	13.6515
233280000	9.72455
233712000	14.1652
234144000	15.57
234576000	13.4392
235008000	17.7681
235440000	15.0109
235872000	15.2747
236304000	15.3641
236736000	17.65
237168000	16.1052
237600000	16.3281
238032000	20.8462
238464000	18.1309
238896000	18.2482
239328000	18.8145
239760000	17.297
240192000	18.0693
240624000	16.666
241056000	20.9778
241488000	17.808
241920000	16.7348
242352000	18.2923
242784000	15.5714
243216000	14.3457
243648000	13.1969
244080000	13.1553
244512000	12.3631
244944000	13.9037
245376000	11.4667
245808000	10.5328
246240000	8.34385
246672000	8.83851
247104000	7.92083
247536000	7.16299
247968000	7.39878
248400000	5.84847
248832000	3.8991
249264000	4.12941
249696000	3.62483
250128000	3.28892
250560000	5.85115
250992000	4.01823
251424000	1.73694
251856000	1.89597
252288000	-0.927674
252720000	-1.6799
253152000	1.18403
253584000	-0.0309375
254016000	1.86507
254448000	7.33958
254880000	5.27007
255312000	3.25757
255744000	1.79003
256176000	2.63931
256608000	1.06406
257040000	1.74858
257472000	3.03458
257904000	2.49024
258336000	8.08333
258768000	3.51465
259200000	3.19274
259632000	3.82913
260064000	4.71285
260496000	8.60632
260928000	4.37288
261360000	6.85378
261792000	5.73865
262224000	11.643
262656000	10.5298
263088000	12.8302
263520000	9.47865
263952000	13.5242
264384000	13.6515
264816000	9.72455
265248000	14.1652
265680000	15.57
266112000	13.4392
266544000	17.7681
266976000	15.0109
267408000	15.2747
267840000	15.3641
268272000	17.65
268704000	16.1052
269136000	16.3281
269568000	20.8462
270000000	18.1309
270432000	18.2482
270864000	18.8145
271296000	17.297
271728000	18.0693
272160000	16.666
272592000	20.9778
273024000	17.808
273456000	16.7348
273888000	18.2923
274320000	15.5714
274752000	14.3457
275184000	13.1969
275616000	13.1553
276048000	12.3631
276480000	13.9037
276912000	11.4667
277344000	10.5328
277776000	8.34385
278208000	8.83851
278640000	7.92083
279072000	7.16299
279504000	7.39878
279936000	5.84847
280368000	3.8991
280800000	4.12941
281232000	3.62483
281664000	3.28892
282096000	5.85115
282528000	4.01823
282960000	1.73694
283392000	1.89597
283824000	-0.927674
284256000	-1.6799
284688000	1.18403
285120000	-0.0309375
285552000	1.86507
285984000	7.33958
286416000	5.27007
286848000	3.25757
287280000	1.79003
287712000	2.63931
288144000	1.06406
288576000	1.74858
289008000	3.03458
289440000	2.49024
289872000	8.08333
290304000	3.51465
290736000	3.19274
291168000	3.82913
291600000	4.71285
292032000	8.60632
292464000	4.37288
292896000	6.85378
293328000	5.73865
293760000	11.643
294192000	10.5298
294624000	12.8302
295056000	9.47865
295488000	13.5242
295920000	13.6515
296352000	9.72455
296784000	14.1652
297216000	15.57
297648000	13.4392
298080000	17.7681
298512000	15.0109
298944000	15.2747
299376000	15.3641
299808000	17.65
300240000	16.1052
300672000	16.3281
301104000	20.8462
301536000	18.1309
301968000	18.2482
302400000	18.8145
302832000	17.297
303264000	18.0693
303696000	16.666
304128000	20.9778
304560000	17.808
304992000	16.7348
305424000	18.2923
305856000	15.5714
306288000	14.3457
306720000	13.1969
307152000	13.1553
307584000	12.3631
308016000	13.9037
308448000	11.4667
308880000	10.5328
309312000	8.34385
309744000	8.83851
310176000	7.92083
310608000	7.16299
311040000	7.39878
311472000	5.84847
311904000	3.8991
312336000	4.12941
312768000	3.62483
313200000	3.28892
313632000	5.85115
314064000	4.01823
314496000	1.73694
314928000	1.89597
315360000	-0.927674
#STOP
